MUESTRA:	Ni SDZ DMF
LongRx:	1.5405
CPS:	500
Intervalo:	5-70
Fecha:	2017-04-19 19:12:30

2Theta	INTENSIDAD	d
(ยบ)	(u.a.)	(Armstrong)
70.00	301.00	1.3429
69.98	307.00	1.3432
69.96	306.00	1.3436
69.94	306.00	1.3439
69.92	303.00	1.3442
69.90	317.00	1.3446
69.88	307.00	1.3449
69.86	289.00	1.3452
69.84	293.00	1.3456
69.82	290.00	1.3459
69.80	294.00	1.3462
69.78	298.00	1.3466
69.76	317.00	1.3469
69.74	321.00	1.3473
69.72	333.00	1.3476
69.70	319.00	1.3479
69.68	322.00	1.3483
69.66	320.00	1.3486
69.64	316.00	1.3489
69.62	326.00	1.3493
69.60	325.00	1.3496
69.58	325.00	1.3500
69.56	312.00	1.3503
69.54	323.00	1.3506
69.52	342.00	1.3510
69.50	335.00	1.3513
69.48	317.00	1.3517
69.46	336.00	1.3520
69.44	331.00	1.3523
69.42	323.00	1.3527
69.40	326.00	1.3530
69.38	323.00	1.3534
69.36	329.00	1.3537
69.34	313.00	1.3541
69.32	321.00	1.3544
69.30	324.00	1.3547
69.28	339.00	1.3551
69.26	342.00	1.3554
69.24	317.00	1.3558
69.22	333.00	1.3561
69.20	337.00	1.3564
69.18	322.00	1.3568
69.16	328.00	1.3571
69.14	326.00	1.3575
69.12	333.00	1.3578
69.10	331.00	1.3582
69.08	325.00	1.3585
69.06	300.00	1.3589
69.04	317.00	1.3592
69.02	320.00	1.3595
69.00	307.00	1.3599
68.98	312.00	1.3602
68.96	317.00	1.3606
68.94	320.00	1.3609
68.92	323.00	1.3613
68.90	315.00	1.3616
68.88	299.00	1.3620
68.86	303.00	1.3623
68.84	303.00	1.3627
68.82	309.00	1.3630
68.80	310.00	1.3634
68.78	302.00	1.3637
68.76	301.00	1.3640
68.74	308.00	1.3644
68.72	297.00	1.3647
68.70	306.00	1.3651
68.68	316.00	1.3654
68.66	327.00	1.3658
68.64	314.00	1.3661
68.62	327.00	1.3665
68.60	314.00	1.3668
68.58	328.00	1.3672
68.56	320.00	1.3675
68.54	299.00	1.3679
68.52	310.00	1.3682
68.50	327.00	1.3686
68.48	336.00	1.3689
68.46	336.00	1.3693
68.44	328.00	1.3696
68.42	334.00	1.3700
68.40	339.00	1.3703
68.38	325.00	1.3707
68.36	319.00	1.3711
68.34	304.00	1.3714
68.32	310.00	1.3718
68.30	310.00	1.3721
68.28	317.00	1.3725
68.26	324.00	1.3728
68.24	335.00	1.3732
68.22	342.00	1.3735
68.20	325.00	1.3739
68.18	311.00	1.3742
68.16	327.00	1.3746
68.14	324.00	1.3749
68.12	314.00	1.3753
68.10	319.00	1.3757
68.08	326.00	1.3760
68.06	319.00	1.3764
68.04	325.00	1.3767
68.02	315.00	1.3771
68.00	343.00	1.3774
67.98	330.00	1.3778
67.96	348.00	1.3781
67.94	323.00	1.3785
67.92	321.00	1.3789
67.90	308.00	1.3792
67.88	304.00	1.3796
67.86	317.00	1.3799
67.84	315.00	1.3803
67.82	319.00	1.3806
67.80	318.00	1.3810
67.78	313.00	1.3814
67.76	313.00	1.3817
67.74	309.00	1.3821
67.72	317.00	1.3824
67.70	320.00	1.3828
67.68	309.00	1.3832
67.66	337.00	1.3835
67.64	320.00	1.3839
67.62	313.00	1.3842
67.60	301.00	1.3846
67.58	309.00	1.3850
67.56	306.00	1.3853
67.54	301.00	1.3857
67.52	320.00	1.3861
67.50	308.00	1.3864
67.48	307.00	1.3868
67.46	309.00	1.3871
67.44	314.00	1.3875
67.42	313.00	1.3879
67.40	313.00	1.3882
67.38	327.00	1.3886
67.36	332.00	1.3890
67.34	325.00	1.3893
67.32	321.00	1.3897
67.30	318.00	1.3900
67.28	323.00	1.3904
67.26	329.00	1.3908
67.24	314.00	1.3911
67.22	317.00	1.3915
67.20	322.00	1.3919
67.18	305.00	1.3922
67.16	326.00	1.3926
67.14	318.00	1.3930
67.12	326.00	1.3933
67.10	330.00	1.3937
67.08	336.00	1.3941
67.06	321.00	1.3944
67.04	341.00	1.3948
67.02	349.00	1.3952
67.00	355.00	1.3955
66.98	371.00	1.3959
66.96	348.00	1.3963
66.94	344.00	1.3966
66.92	328.00	1.3970
66.90	315.00	1.3974
66.88	322.00	1.3978
66.86	323.00	1.3981
66.84	319.00	1.3985
66.82	328.00	1.3989
66.80	326.00	1.3992
66.78	340.00	1.3996
66.76	333.00	1.4000
66.74	339.00	1.4003
66.72	328.00	1.4007
66.70	335.00	1.4011
66.68	346.00	1.4015
66.66	341.00	1.4018
66.64	350.00	1.4022
66.62	358.00	1.4026
66.60	334.00	1.4029
66.58	345.00	1.4033
66.56	342.00	1.4037
66.54	336.00	1.4041
66.52	337.00	1.4044
66.50	333.00	1.4048
66.48	319.00	1.4052
66.46	317.00	1.4056
66.44	322.00	1.4059
66.42	345.00	1.4063
66.40	349.00	1.4067
66.38	354.00	1.4071
66.36	347.00	1.4074
66.34	343.00	1.4078
66.32	340.00	1.4082
66.30	341.00	1.4086
66.28	334.00	1.4089
66.26	328.00	1.4093
66.24	331.00	1.4097
66.22	342.00	1.4101
66.20	336.00	1.4105
66.18	346.00	1.4108
66.16	355.00	1.4112
66.14	343.00	1.4116
66.12	346.00	1.4120
66.10	346.00	1.4123
66.08	351.00	1.4127
66.06	360.00	1.4131
66.04	352.00	1.4135
66.02	337.00	1.4139
66.00	338.00	1.4142
65.98	336.00	1.4146
65.96	328.00	1.4150
65.94	331.00	1.4154
65.92	336.00	1.4158
65.90	335.00	1.4161
65.88	340.00	1.4165
65.86	343.00	1.4169
65.84	331.00	1.4173
65.82	351.00	1.4177
65.80	340.00	1.4181
65.78	333.00	1.4184
65.76	305.00	1.4188
65.74	307.00	1.4192
65.72	318.00	1.4196
65.70	323.00	1.4200
65.68	319.00	1.4204
65.66	315.00	1.4207
65.64	327.00	1.4211
65.62	322.00	1.4215
65.60	336.00	1.4219
65.58	339.00	1.4223
65.56	309.00	1.4227
65.54	314.00	1.4230
65.52	321.00	1.4234
65.50	313.00	1.4238
65.48	340.00	1.4242
65.46	337.00	1.4246
65.44	317.00	1.4250
65.42	340.00	1.4254
65.40	345.00	1.4258
65.38	343.00	1.4261
65.36	334.00	1.4265
65.34	337.00	1.4269
65.32	333.00	1.4273
65.30	335.00	1.4277
65.28	344.00	1.4281
65.26	344.00	1.4285
65.24	344.00	1.4289
65.22	340.00	1.4293
65.20	341.00	1.4296
65.18	339.00	1.4300
65.16	337.00	1.4304
65.14	329.00	1.4308
65.12	324.00	1.4312
65.10	326.00	1.4316
65.08	326.00	1.4320
65.06	345.00	1.4324
65.04	349.00	1.4328
65.02	344.00	1.4332
65.00	337.00	1.4336
64.98	347.00	1.4340
64.96	345.00	1.4343
64.94	348.00	1.4347
64.92	341.00	1.4351
64.90	330.00	1.4355
64.88	347.00	1.4359
64.86	358.00	1.4363
64.84	359.00	1.4367
64.82	352.00	1.4371
64.80	353.00	1.4375
64.78	345.00	1.4379
64.76	351.00	1.4383
64.74	339.00	1.4387
64.72	337.00	1.4391
64.70	323.00	1.4395
64.68	326.00	1.4399
64.66	320.00	1.4403
64.64	344.00	1.4407
64.62	340.00	1.4411
64.60	330.00	1.4415
64.58	324.00	1.4419
64.56	313.00	1.4423
64.54	337.00	1.4427
64.52	346.00	1.4431
64.50	346.00	1.4435
64.48	364.00	1.4439
64.46	370.00	1.4443
64.44	362.00	1.4447
64.42	348.00	1.4451
64.40	354.00	1.4455
64.38	334.00	1.4459
64.36	336.00	1.4463
64.34	346.00	1.4467
64.32	350.00	1.4471
64.30	369.00	1.4475
64.28	365.00	1.4479
64.26	370.00	1.4483
64.24	362.00	1.4487
64.22	344.00	1.4491
64.20	348.00	1.4495
64.18	350.00	1.4499
64.16	341.00	1.4503
64.14	340.00	1.4507
64.12	323.00	1.4511
64.10	311.00	1.4515
64.08	315.00	1.4519
64.06	327.00	1.4523
64.04	324.00	1.4527
64.02	328.00	1.4531
64.00	335.00	1.4535
63.98	349.00	1.4539
63.96	349.00	1.4543
63.94	358.00	1.4547
63.92	353.00	1.4551
63.90	358.00	1.4556
63.88	348.00	1.4560
63.86	341.00	1.4564
63.84	358.00	1.4568
63.82	358.00	1.4572
63.80	350.00	1.4576
63.78	364.00	1.4580
63.76	349.00	1.4584
63.74	357.00	1.4588
63.72	352.00	1.4592
63.70	341.00	1.4596
63.68	349.00	1.4601
63.66	346.00	1.4605
63.64	338.00	1.4609
63.62	360.00	1.4613
63.60	366.00	1.4617
63.58	354.00	1.4621
63.56	331.00	1.4625
63.54	336.00	1.4629
63.52	346.00	1.4633
63.50	350.00	1.4638
63.48	346.00	1.4642
63.46	329.00	1.4646
63.44	351.00	1.4650
63.42	360.00	1.4654
63.40	376.00	1.4658
63.38	372.00	1.4662
63.36	351.00	1.4667
63.34	344.00	1.4671
63.32	335.00	1.4675
63.30	347.00	1.4679
63.28	349.00	1.4683
63.26	355.00	1.4687
63.24	356.00	1.4691
63.22	340.00	1.4696
63.20	355.00	1.4700
63.18	344.00	1.4704
63.16	344.00	1.4708
63.14	336.00	1.4712
63.12	319.00	1.4717
63.10	349.00	1.4721
63.08	362.00	1.4725
63.06	352.00	1.4729
63.04	338.00	1.4733
63.02	338.00	1.4737
63.00	326.00	1.4742
62.98	343.00	1.4746
62.96	312.00	1.4750
62.94	321.00	1.4754
62.92	336.00	1.4758
62.90	347.00	1.4763
62.88	354.00	1.4767
62.86	349.00	1.4771
62.84	355.00	1.4775
62.82	341.00	1.4780
62.80	328.00	1.4784
62.78	343.00	1.4788
62.76	339.00	1.4792
62.74	334.00	1.4796
62.72	332.00	1.4801
62.70	325.00	1.4805
62.68	340.00	1.4809
62.66	353.00	1.4813
62.64	367.00	1.4818
62.62	366.00	1.4822
62.60	366.00	1.4826
62.58	353.00	1.4830
62.56	355.00	1.4835
62.54	363.00	1.4839
62.52	367.00	1.4843
62.50	375.00	1.4848
62.48	350.00	1.4852
62.46	343.00	1.4856
62.44	352.00	1.4860
62.42	356.00	1.4865
62.40	344.00	1.4869
62.38	339.00	1.4873
62.36	338.00	1.4877
62.34	341.00	1.4882
62.32	343.00	1.4886
62.30	343.00	1.4890
62.28	345.00	1.4895
62.26	346.00	1.4899
62.24	351.00	1.4903
62.22	352.00	1.4908
62.20	351.00	1.4912
62.18	368.00	1.4916
62.16	363.00	1.4921
62.14	357.00	1.4925
62.12	347.00	1.4929
62.10	350.00	1.4934
62.08	353.00	1.4938
62.06	356.00	1.4942
62.04	363.00	1.4947
62.02	381.00	1.4951
62.00	381.00	1.4955
61.98	379.00	1.4960
61.96	385.00	1.4964
61.94	368.00	1.4968
61.92	350.00	1.4973
61.90	346.00	1.4977
61.88	345.00	1.4981
61.86	344.00	1.4986
61.84	368.00	1.4990
61.82	353.00	1.4994
61.80	345.00	1.4999
61.78	343.00	1.5003
61.76	369.00	1.5008
61.74	344.00	1.5012
61.72	349.00	1.5016
61.70	354.00	1.5021
61.68	339.00	1.5025
61.66	342.00	1.5029
61.64	344.00	1.5034
61.62	361.00	1.5038
61.60	360.00	1.5043
61.58	349.00	1.5047
61.56	351.00	1.5052
61.54	349.00	1.5056
61.52	359.00	1.5060
61.50	376.00	1.5065
61.48	370.00	1.5069
61.46	377.00	1.5074
61.44	352.00	1.5078
61.42	343.00	1.5082
61.40	353.00	1.5087
61.38	364.00	1.5091
61.36	363.00	1.5096
61.34	373.00	1.5100
61.32	368.00	1.5105
61.30	357.00	1.5109
61.28	360.00	1.5114
61.26	363.00	1.5118
61.24	362.00	1.5122
61.22	355.00	1.5127
61.20	363.00	1.5131
61.18	356.00	1.5136
61.16	340.00	1.5140
61.14	351.00	1.5145
61.12	357.00	1.5149
61.10	361.00	1.5154
61.08	353.00	1.5158
61.06	343.00	1.5163
61.04	359.00	1.5167
61.02	359.00	1.5172
61.00	355.00	1.5176
60.98	357.00	1.5181
60.96	358.00	1.5185
60.94	372.00	1.5190
60.92	373.00	1.5194
60.90	371.00	1.5199
60.88	359.00	1.5203
60.86	372.00	1.5208
60.84	381.00	1.5212
60.82	375.00	1.5217
60.80	361.00	1.5221
60.78	348.00	1.5226
60.76	343.00	1.5230
60.74	354.00	1.5235
60.72	364.00	1.5239
60.70	361.00	1.5244
60.68	353.00	1.5249
60.66	381.00	1.5253
60.64	378.00	1.5258
60.62	377.00	1.5262
60.60	377.00	1.5267
60.58	366.00	1.5271
60.56	388.00	1.5276
60.54	390.00	1.5280
60.52	369.00	1.5285
60.50	369.00	1.5290
60.48	353.00	1.5294
60.46	358.00	1.5299
60.44	358.00	1.5303
60.42	367.00	1.5308
60.40	387.00	1.5313
60.38	389.00	1.5317
60.36	384.00	1.5322
60.34	395.00	1.5326
60.32	378.00	1.5331
60.30	388.00	1.5336
60.28	383.00	1.5340
60.26	370.00	1.5345
60.24	364.00	1.5349
60.22	358.00	1.5354
60.20	349.00	1.5359
60.18	351.00	1.5363
60.16	363.00	1.5368
60.14	363.00	1.5372
60.12	388.00	1.5377
60.10	387.00	1.5382
60.08	388.00	1.5386
60.06	369.00	1.5391
60.04	369.00	1.5396
60.02	364.00	1.5400
60.00	381.00	1.5405
59.98	382.00	1.5410
59.96	373.00	1.5414
59.94	369.00	1.5419
59.92	382.00	1.5424
59.90	370.00	1.5428
59.88	385.00	1.5433
59.86	389.00	1.5438
59.84	398.00	1.5442
59.82	388.00	1.5447
59.80	375.00	1.5452
59.78	376.00	1.5456
59.76	377.00	1.5461
59.74	354.00	1.5466
59.72	364.00	1.5471
59.70	356.00	1.5475
59.68	357.00	1.5480
59.66	367.00	1.5485
59.64	354.00	1.5489
59.62	359.00	1.5494
59.60	345.00	1.5499
59.58	368.00	1.5504
59.56	379.00	1.5508
59.54	362.00	1.5513
59.52	377.00	1.5518
59.50	380.00	1.5522
59.48	368.00	1.5527
59.46	384.00	1.5532
59.44	405.00	1.5537
59.42	386.00	1.5541
59.40	372.00	1.5546
59.38	377.00	1.5551
59.36	375.00	1.5556
59.34	360.00	1.5560
59.32	356.00	1.5565
59.30	351.00	1.5570
59.28	356.00	1.5575
59.26	358.00	1.5580
59.24	356.00	1.5584
59.22	373.00	1.5589
59.20	381.00	1.5594
59.18	376.00	1.5599
59.16	366.00	1.5604
59.14	356.00	1.5608
59.12	376.00	1.5613
59.10	381.00	1.5618
59.08	382.00	1.5623
59.06	386.00	1.5628
59.04	383.00	1.5632
59.02	409.00	1.5637
59.00	390.00	1.5642
58.98	376.00	1.5647
58.96	368.00	1.5652
58.94	380.00	1.5657
58.92	379.00	1.5661
58.90	384.00	1.5666
58.88	383.00	1.5671
58.86	403.00	1.5676
58.84	384.00	1.5681
58.82	387.00	1.5686
58.80	383.00	1.5690
58.78	389.00	1.5695
58.76	396.00	1.5700
58.74	387.00	1.5705
58.72	381.00	1.5710
58.70	393.00	1.5715
58.68	410.00	1.5720
58.66	398.00	1.5725
58.64	411.00	1.5729
58.62	392.00	1.5734
58.60	409.00	1.5739
58.58	386.00	1.5744
58.56	399.00	1.5749
58.54	406.00	1.5754
58.52	397.00	1.5759
58.50	386.00	1.5764
58.48	386.00	1.5769
58.46	376.00	1.5774
58.44	362.00	1.5778
58.42	366.00	1.5783
58.40	381.00	1.5788
58.38	381.00	1.5793
58.36	372.00	1.5798
58.34	387.00	1.5803
58.32	383.00	1.5808
58.30	379.00	1.5813
58.28	385.00	1.5818
58.26	374.00	1.5823
58.24	365.00	1.5828
58.22	362.00	1.5833
58.20	374.00	1.5838
58.18	400.00	1.5843
58.16	398.00	1.5848
58.14	383.00	1.5853
58.12	372.00	1.5858
58.10	372.00	1.5863
58.08	373.00	1.5868
58.06	371.00	1.5873
58.04	397.00	1.5878
58.02	388.00	1.5883
58.00	386.00	1.5888
57.98	387.00	1.5893
57.96	379.00	1.5898
57.94	383.00	1.5903
57.92	375.00	1.5908
57.90	347.00	1.5913
57.88	386.00	1.5918
57.86	403.00	1.5923
57.84	386.00	1.5928
57.82	405.00	1.5933
57.80	414.00	1.5938
57.78	412.00	1.5943
57.76	400.00	1.5948
57.74	388.00	1.5953
57.72	384.00	1.5958
57.70	381.00	1.5963
57.68	388.00	1.5968
57.66	377.00	1.5973
57.64	362.00	1.5978
57.62	372.00	1.5983
57.60	388.00	1.5988
57.58	410.00	1.5994
57.56	397.00	1.5999
57.54	416.00	1.6004
57.52	390.00	1.6009
57.50	389.00	1.6014
57.48	402.00	1.6019
57.46	411.00	1.6024
57.44	413.00	1.6029
57.42	402.00	1.6034
57.40	406.00	1.6039
57.38	429.00	1.6045
57.36	420.00	1.6050
57.34	411.00	1.6055
57.32	385.00	1.6060
57.30	393.00	1.6065
57.28	388.00	1.6070
57.26	393.00	1.6075
57.24	400.00	1.6080
57.22	397.00	1.6086
57.20	384.00	1.6091
57.18	382.00	1.6096
57.16	408.00	1.6101
57.14	408.00	1.6106
57.12	395.00	1.6111
57.10	388.00	1.6117
57.08	390.00	1.6122
57.06	409.00	1.6127
57.04	406.00	1.6132
57.02	399.00	1.6137
57.00	403.00	1.6142
56.98	387.00	1.6148
56.96	385.00	1.6153
56.94	403.00	1.6158
56.92	412.00	1.6163
56.90	403.00	1.6168
56.88	395.00	1.6174
56.86	413.00	1.6179
56.84	387.00	1.6184
56.82	391.00	1.6189
56.80	405.00	1.6195
56.78	397.00	1.6200
56.76	393.00	1.6205
56.74	402.00	1.6210
56.72	414.00	1.6215
56.70	414.00	1.6221
56.68	402.00	1.6226
56.66	406.00	1.6231
56.64	408.00	1.6236
56.62	401.00	1.6242
56.60	400.00	1.6247
56.58	404.00	1.6252
56.56	399.00	1.6258
56.54	387.00	1.6263
56.52	385.00	1.6268
56.50	397.00	1.6273
56.48	405.00	1.6279
56.46	415.00	1.6284
56.44	420.00	1.6289
56.42	409.00	1.6295
56.40	397.00	1.6300
56.38	394.00	1.6305
56.36	377.00	1.6310
56.34	387.00	1.6316
56.32	383.00	1.6321
56.30	391.00	1.6326
56.28	379.00	1.6332
56.26	384.00	1.6337
56.24	399.00	1.6342
56.22	399.00	1.6348
56.20	401.00	1.6353
56.18	407.00	1.6358
56.16	408.00	1.6364
56.14	401.00	1.6369
56.12	390.00	1.6375
56.10	388.00	1.6380
56.08	397.00	1.6385
56.06	404.00	1.6391
56.04	408.00	1.6396
56.02	424.00	1.6401
56.00	417.00	1.6407
55.98	403.00	1.6412
55.96	421.00	1.6418
55.94	415.00	1.6423
55.92	403.00	1.6428
55.90	406.00	1.6434
55.88	402.00	1.6439
55.86	405.00	1.6445
55.84	398.00	1.6450
55.82	407.00	1.6455
55.80	416.00	1.6461
55.78	425.00	1.6466
55.76	404.00	1.6472
55.74	433.00	1.6477
55.72	401.00	1.6483
55.70	413.00	1.6488
55.68	420.00	1.6493
55.66	418.00	1.6499
55.64	410.00	1.6504
55.62	401.00	1.6510
55.60	409.00	1.6515
55.58	402.00	1.6521
55.56	408.00	1.6526
55.54	390.00	1.6532
55.52	404.00	1.6537
55.50	404.00	1.6543
55.48	404.00	1.6548
55.46	417.00	1.6554
55.44	418.00	1.6559
55.42	415.00	1.6565
55.40	402.00	1.6570
55.38	402.00	1.6576
55.36	390.00	1.6581
55.34	385.00	1.6587
55.32	403.00	1.6592
55.30	407.00	1.6598
55.28	393.00	1.6603
55.26	390.00	1.6609
55.24	396.00	1.6614
55.22	396.00	1.6620
55.20	403.00	1.6625
55.18	412.00	1.6631
55.16	407.00	1.6637
55.14	417.00	1.6642
55.12	411.00	1.6648
55.10	414.00	1.6653
55.08	422.00	1.6659
55.06	408.00	1.6664
55.04	400.00	1.6670
55.02	411.00	1.6676
55.00	421.00	1.6681
54.98	419.00	1.6687
54.96	411.00	1.6692
54.94	412.00	1.6698
54.92	395.00	1.6704
54.90	409.00	1.6709
54.88	401.00	1.6715
54.86	418.00	1.6720
54.84	424.00	1.6726
54.82	425.00	1.6732
54.80	414.00	1.6737
54.78	403.00	1.6743
54.76	410.00	1.6749
54.74	413.00	1.6754
54.72	407.00	1.6760
54.70	389.00	1.6766
54.68	400.00	1.6771
54.66	408.00	1.6777
54.64	407.00	1.6783
54.62	420.00	1.6788
54.60	426.00	1.6794
54.58	425.00	1.6800
54.56	411.00	1.6805
54.54	405.00	1.6811
54.52	416.00	1.6817
54.50	417.00	1.6822
54.48	416.00	1.6828
54.46	416.00	1.6834
54.44	434.00	1.6839
54.42	435.00	1.6845
54.40	441.00	1.6851
54.38	437.00	1.6857
54.36	419.00	1.6862
54.34	432.00	1.6868
54.32	426.00	1.6874
54.30	421.00	1.6880
54.28	424.00	1.6885
54.26	441.00	1.6891
54.24	444.00	1.6897
54.22	445.00	1.6903
54.20	421.00	1.6908
54.18	422.00	1.6914
54.16	428.00	1.6920
54.14	423.00	1.6926
54.12	432.00	1.6931
54.10	419.00	1.6937
54.08	417.00	1.6943
54.06	410.00	1.6949
54.04	421.00	1.6955
54.02	418.00	1.6960
54.00	411.00	1.6966
53.98	424.00	1.6972
53.96	433.00	1.6978
53.94	434.00	1.6984
53.92	439.00	1.6989
53.90	418.00	1.6995
53.88	423.00	1.7001
53.86	431.00	1.7007
53.84	419.00	1.7013
53.82	415.00	1.7019
53.80	424.00	1.7025
53.78	419.00	1.7030
53.76	419.00	1.7036
53.74	448.00	1.7042
53.72	433.00	1.7048
53.70	418.00	1.7054
53.68	428.00	1.7060
53.66	413.00	1.7066
53.64	402.00	1.7072
53.62	423.00	1.7077
53.60	423.00	1.7083
53.58	413.00	1.7089
53.56	423.00	1.7095
53.54	434.00	1.7101
53.52	440.00	1.7107
53.50	459.00	1.7113
53.48	454.00	1.7119
53.46	466.00	1.7125
53.44	453.00	1.7131
53.42	438.00	1.7137
53.40	433.00	1.7143
53.38	419.00	1.7149
53.36	421.00	1.7155
53.34	434.00	1.7160
53.32	431.00	1.7166
53.30	443.00	1.7172
53.28	444.00	1.7178
53.26	430.00	1.7184
53.24	422.00	1.7190
53.22	437.00	1.7196
53.20	436.00	1.7202
53.18	437.00	1.7208
53.16	461.00	1.7214
53.14	469.00	1.7220
53.12	452.00	1.7226
53.10	438.00	1.7232
53.08	445.00	1.7238
53.06	435.00	1.7244
53.04	439.00	1.7250
53.02	445.00	1.7256
53.00	430.00	1.7263
52.98	430.00	1.7269
52.96	451.00	1.7275
52.94	462.00	1.7281
52.92	439.00	1.7287
52.90	438.00	1.7293
52.88	426.00	1.7299
52.86	424.00	1.7305
52.84	440.00	1.7311
52.82	452.00	1.7317
52.80	467.00	1.7323
52.78	465.00	1.7329
52.76	451.00	1.7335
52.74	431.00	1.7341
52.72	445.00	1.7348
52.70	428.00	1.7354
52.68	423.00	1.7360
52.66	424.00	1.7366
52.64	426.00	1.7372
52.62	424.00	1.7378
52.60	413.00	1.7384
52.58	422.00	1.7390
52.56	438.00	1.7397
52.54	446.00	1.7403
52.52	447.00	1.7409
52.50	459.00	1.7415
52.48	443.00	1.7421
52.46	458.00	1.7427
52.44	452.00	1.7434
52.42	450.00	1.7440
52.40	432.00	1.7446
52.38	449.00	1.7452
52.36	446.00	1.7458
52.34	455.00	1.7465
52.32	459.00	1.7471
52.30	446.00	1.7477
52.28	431.00	1.7483
52.26	455.00	1.7489
52.24	435.00	1.7496
52.22	451.00	1.7502
52.20	458.00	1.7508
52.18	438.00	1.7514
52.16	426.00	1.7521
52.14	432.00	1.7527
52.12	435.00	1.7533
52.10	452.00	1.7539
52.08	446.00	1.7546
52.06	427.00	1.7552
52.04	438.00	1.7558
52.02	453.00	1.7564
52.00	431.00	1.7571
51.98	458.00	1.7577
51.96	452.00	1.7583
51.94	442.00	1.7590
51.92	444.00	1.7596
51.90	462.00	1.7602
51.88	448.00	1.7609
51.86	450.00	1.7615
51.84	458.00	1.7621
51.82	450.00	1.7628
51.80	428.00	1.7634
51.78	440.00	1.7640
51.76	440.00	1.7647
51.74	447.00	1.7653
51.72	452.00	1.7659
51.70	464.00	1.7666
51.68	446.00	1.7672
51.66	459.00	1.7678
51.64	458.00	1.7685
51.62	472.00	1.7691
51.60	473.00	1.7697
51.58	450.00	1.7704
51.56	457.00	1.7710
51.54	471.00	1.7717
51.52	459.00	1.7723
51.50	450.00	1.7730
51.48	468.00	1.7736
51.46	468.00	1.7742
51.44	477.00	1.7749
51.42	468.00	1.7755
51.40	447.00	1.7762
51.38	446.00	1.7768
51.36	457.00	1.7775
51.34	446.00	1.7781
51.32	461.00	1.7787
51.30	483.00	1.7794
51.28	479.00	1.7800
51.26	482.00	1.7807
51.24	461.00	1.7813
51.22	454.00	1.7820
51.20	454.00	1.7826
51.18	464.00	1.7833
51.16	486.00	1.7839
51.14	488.00	1.7846
51.12	477.00	1.7852
51.10	501.00	1.7859
51.08	505.00	1.7865
51.06	494.00	1.7872
51.04	480.00	1.7878
51.02	463.00	1.7885
51.00	480.00	1.7892
50.98	463.00	1.7898
50.96	459.00	1.7905
50.94	457.00	1.7911
50.92	459.00	1.7918
50.90	465.00	1.7924
50.88	450.00	1.7931
50.86	460.00	1.7937
50.84	472.00	1.7944
50.82	475.00	1.7951
50.80	460.00	1.7957
50.78	479.00	1.7964
50.76	463.00	1.7970
50.74	469.00	1.7977
50.72	479.00	1.7984
50.70	480.00	1.7990
50.68	486.00	1.7997
50.66	473.00	1.8004
50.64	481.00	1.8010
50.62	477.00	1.8017
50.60	478.00	1.8024
50.58	482.00	1.8030
50.56	460.00	1.8037
50.54	468.00	1.8044
50.52	469.00	1.8050
50.50	479.00	1.8057
50.48	476.00	1.8064
50.46	477.00	1.8070
50.44	484.00	1.8077
50.42	486.00	1.8084
50.40	492.00	1.8090
50.38	507.00	1.8097
50.36	493.00	1.8104
50.34	474.00	1.8111
50.32	480.00	1.8117
50.30	476.00	1.8124
50.28	456.00	1.8131
50.26	448.00	1.8137
50.24	459.00	1.8144
50.22	449.00	1.8151
50.20	469.00	1.8158
50.18	474.00	1.8165
50.16	483.00	1.8171
